33        Partition function for doubly ionized arsenic 
     temp (K)     Z_AsIII
        1.000       2.000
      200.000       2.000
      400.000       2.000
      600.000       2.003
      800.000       2.020
     1000.000       2.058
     1200.000       2.118
     1400.000       2.195
     1600.000       2.284
     1800.000       2.381
     2000.000       2.483
     2200.000       2.585
     2400.000       2.686
     2600.000       2.786
     2800.000       2.883
     3000.000       2.977
     3200.000       3.067
     3400.000       3.153
     3600.000       3.235
     3800.000       3.314
     4000.000       3.389
     4200.000       3.461
     4400.000       3.529
     4600.000       3.595
     4800.000       3.657
     5000.000       3.716
     5200.000       3.773
     5400.000       3.828
     5600.000       3.879
     5800.000       3.929
     6000.000       3.976
     6200.000       4.022
     6400.000       4.065
     6600.000       4.107
     6800.000       4.147
     7000.000       4.186
     7200.000       4.223
     7400.000       4.258
     7600.000       4.293
     7800.000       4.326
     8000.000       4.357
     8200.000       4.388
     8400.000       4.417
     8600.000       4.446
     8800.000       4.473
     9000.000       4.500
     9200.000       4.526
     9400.000       4.551
     9600.000       4.575
     9800.000       4.598
    10000.000       4.620
    10200.000       4.642
    10400.000       4.663
    10600.000       4.684
    10800.000       4.704
    11000.000       4.723
    11200.000       4.742
    11400.000       4.760
    11600.000       4.778
    11800.000       4.795
    12000.000       4.812
    12200.000       4.828
    12400.000       4.844
    12600.000       4.860
    12800.000       4.875
    13000.000       4.890
       -1.000       0.000
Energy levels of As III from nist.gov April 2002.

