67        Partition Functions for Silver
temp (K)  Z_Ho I  Z_Ho II
  001.000  16.000  17.000
  200.000  16.000  17.153
  400.000  16.000  18.513
  600.000  16.000  20.250
  800.000  16.001  21.765
  1000.000  16.006  23.000
  1200.000  16.023  24.013
  1400.000  16.064  24.870
  1600.000  16.140  25.626
  1800.000  16.266  26.321
  2000.000  16.455  26.985
  2200.000  16.720  27.635
  2400.000  17.073  28.287
  2600.000  17.526  28.948
  2800.000  18.090  29.626
  3000.000  18.775  30.325
  3200.000  19.591  31.050
  3400.000  20.550  31.802
  3600.000  21.660  32.587
  3800.000  22.933  33.407
  4000.000  24.379  34.265
  4200.000  26.008  35.164
  4400.000  27.831  36.108
  4600.000  29.858  37.100
  4800.000  32.098  38.142
  5000.000  34.561  39.237
  5200.000  37.255  40.388
  5400.000  40.188  41.598
  5600.000  43.368  42.868
  5800.000  46.802  44.202
  6000.000  50.494  45.599
  6200.000  54.450  47.063
  6400.000  58.674  48.593
  6600.000  63.169  50.192
  6800.000  67.937  51.859
  7000.000  72.981  53.596
  7200.000  78.302  55.402
  7400.000  83.898  57.278
  7600.000  89.770  59.223
  7800.000  95.917  61.238
  8000.000  102.336  63.320
  8200.000  109.026  65.470
  8400.000  115.983  67.687
  8600.000  123.204  69.970
  8800.000  130.685  72.317
  9000.000  138.421  74.728
  9200.000  146.409  77.201
  9400.000  154.643  79.735
  9600.000  163.118  82.328
  9800.000  171.829  84.978
  10000.000  180.769  87.684
  10200.000  189.934  90.445
  10400.000  199.316  93.258
  10600.000  208.911  96.122
  10800.000  218.710  99.036
  11000.000  228.710  101.996
  11200.000  238.902  105.003
  11400.000  249.281  108.053
  11600.000  259.840  111.146
  11800.000  270.573  114.279
  12000.000  281.473  117.451
  12200.000  292.535  120.660
  12400.000  303.752  123.904
  12600.000  315.117  127.181
  12800.000  326.625  130.491
  13000.000  338.270  133.831
    -1.000    0.000    0.000

Ho I Energy Levels from nist.gov Oct. 2002 including 123 even, 112 odd.
  New Ho I energy levels from Kroger, Wyart, & Luc, Physica Scripta vol 55
p 579 (1997) including 42 even and 58 odd were added.
Some, 3, fake Ho I level between 23000cm-1 & 31000cm-1 have been
added for a missing level in the nist.gov tables.
These 3 levels changed the
partition function by  0.1% ( 0.3%) at 5000K (10000K).
Energy levels of Ho II from J.-F. Wyart via Betsy during May
1999.  A few levels listed in nist.gov Nov. 2001 and not by
Wyart have been added.


James E. Lawler
Arthur and Aurelia Schawlow Professor of Physics
University of Wisconsin
1150 University Ave.
Madison, WI 53706

tele: 608 262 2918
fax:  608 265 2334
