18        Partition function for doubly ionized argon
     temp (K)     Z_ArIII
  001.000  5.000
  200.000  5.001
  400.000  5.058
  600.000  5.232
  800.000  5.465
  1000.000  5.710
  1200.000  5.943
  1400.000  6.156
  1600.000  6.347
  1800.000  6.518
  2000.000  6.671
  2200.000  6.808
  2400.000  6.931
  2600.000  7.043
  2800.000  7.144
  3000.000  7.237
  3200.000  7.322
  3400.000  7.402
  3600.000  7.476
  3800.000  7.546
  4000.000  7.612
  4200.000  7.675
  4400.000  7.735
  4600.000  7.793
  4800.000  7.849
  5000.000  7.904
  5200.000  7.957
  5400.000  8.009
  5600.000  8.059
  5800.000  8.109
  6000.000  8.158
  6200.000  8.206
  6400.000  8.254
  6600.000  8.301
  6800.000  8.347
  7000.000  8.393
  7200.000  8.438
  7400.000  8.483
  7600.000  8.528
  7800.000  8.572
  8000.000  8.615
  8200.000  8.658
  8400.000  8.701
  8600.000  8.743
  8800.000  8.785
  9000.000  8.827
  9200.000  8.868
  9400.000  8.909
  9600.000  8.949
  9800.000  8.989
  10000.000  9.029
  10200.000  9.068
  10400.000  9.107
  10600.000  9.145
  10800.000  9.183
  11000.000  9.221
  11200.000  9.259
  11400.000  9.296
  11600.000  9.332
  11800.000  9.369
  12000.000  9.404
  12200.000  9.440
  12400.000  9.475
  12600.000  9.510
  12800.000  9.545
  13000.000  9.579
     -1.000  0.000
Energy levels of Ar III from nist.gov April 2002.


