08        Partition function for doubly ionized oxygen
     temp (K)     Z_OIII
  001.000  1.000
  200.000  2.882
  400.000  4.659
  600.000  5.686
  800.000  6.330
  1000.000  6.768
  1200.000  7.083
  1400.000  7.321
  1600.000  7.506
  1800.000  7.655
  2000.000  7.777
  2200.000  7.879
  2400.000  7.965
  2600.000  8.039
  2800.000  8.103
  3000.000  8.159
  3200.000  8.209
  3400.000  8.253
  3600.000  8.293
  3800.000  8.329
  4000.000  8.362
  4200.000  8.393
  4400.000  8.421
  4600.000  8.448
  4800.000  8.473
  5000.000  8.497
  5200.000  8.520
  5400.000  8.542
  5600.000  8.563
  5800.000  8.584
  6000.000  8.604
  6200.000  8.625
  6400.000  8.645
  6600.000  8.664
  6800.000  8.684
  7000.000  8.704
  7200.000  8.723
  7400.000  8.743
  7600.000  8.763
  7800.000  8.783
  8000.000  8.803
  8200.000  8.823
  8400.000  8.843
  8600.000  8.863
  8800.000  8.884
  9000.000  8.904
  9200.000  8.925
  9400.000  8.946
  9600.000  8.967
  9800.000  8.988
  10000.000  9.009
  10200.000  9.031
  10400.000  9.052
  10600.000  9.074
  10800.000  9.096
  11000.000  9.118
  11200.000  9.140
  11400.000  9.162
  11600.000  9.184
  11800.000  9.206
  12000.000  9.228
  12200.000  9.251
  12400.000  9.273
  12600.000  9.296
  12800.000  9.318
  13000.000  9.341
     -1.000  0.000
Energy levels of O III from nist.gov April 2002. Fake levels were
added for 4 missing levels above 400,000 cm_1. These had no effect on
the partition function.

