16        Partition function for doubly ionized sulfur
     temp (K)     Z_SIII
    1.000  1.000
  200.000  1.362
  400.000  2.274
  600.000  3.144
  800.000  3.871
  1000.000  4.460
  1200.000  4.938
  1400.000  5.331
  1600.000  5.657
  1800.000  5.932
  2000.000  6.167
  2200.000  6.370
  2400.000  6.548
  2600.000  6.706
  2800.000  6.847
  3000.000  6.975
  3200.000  7.092
  3400.000  7.200
  3600.000  7.301
  3800.000  7.395
  4000.000  7.485
  4200.000  7.570
  4400.000  7.652
  4600.000  7.731
  4800.000  7.806
  5000.000  7.880
  5200.000  7.951
  5400.000  8.021
  5600.000  8.089
  5800.000  8.155
  6000.000  8.220
  6200.000  8.283
  6400.000  8.346
  6600.000  8.407
  6800.000  8.467
  7000.000  8.526
  7200.000  8.584
  7400.000  8.641
  7600.000  8.698
  7800.000  8.753
  8000.000  8.808
  8200.000  8.861
  8400.000  8.914
  8600.000  8.966
  8800.000  9.018
  9000.000  9.068
  9200.000  9.118
  9400.000  9.167
  9600.000  9.216
  9800.000  9.264
  10000.000  9.311
  10200.000  9.357
  10400.000  9.403
  10600.000  9.448
  10800.000  9.493
  11000.000  9.537
  11200.000  9.581
  11400.000  9.624
  11600.000  9.666
  11800.000  9.708
  12000.000  9.749
  12200.000  9.790
  12400.000  9.830
  12600.000  9.870
  12800.000  9.910
  13000.000  9.949
     -1.000  0.000
Energy levels of S III from nist.gov April 2002.


