23        Partition function for doubly ionized vanadium
     temp (K)      Z_VIII
        1.000       4.000
      200.000       6.942
      400.000      11.122
      600.000      14.226
      800.000      16.447
     1000.000      18.078
     1200.000      19.318
     1400.000      20.287
     1600.000      21.065
     1800.000      21.703
     2000.000      22.238
     2200.000      22.694
     2400.000      23.091
     2600.000      23.443
     2800.000      23.763
     3000.000      24.058
     3200.000      24.337
     3400.000      24.606
     3600.000      24.869
     3800.000      25.129
     4000.000      25.390
     4200.000      25.654
     4400.000      25.922
     4600.000      26.196
     4800.000      26.477
     5000.000      26.766
     5200.000      27.062
     5400.000      27.366
     5600.000      27.678
     5800.000      27.998
     6000.000      28.325
     6200.000      28.660
     6400.000      29.002
     6600.000      29.351
     6800.000      29.706
     7000.000      30.067
     7200.000      30.434
     7400.000      30.806
     7600.000      31.182
     7800.000      31.564
     8000.000      31.949
     8200.000      32.338
     8400.000      32.731
     8600.000      33.126
     8800.000      33.525
     9000.000      33.926
     9200.000      34.329
     9400.000      34.734
     9600.000      35.141
     9800.000      35.550
    10000.000      35.960
    10200.000      36.371
    10400.000      36.783
    10600.000      37.196
    10800.000      37.610
    11000.000      38.024
    11200.000      38.439
    11400.000      38.854
    11600.000      39.270
    11800.000      39.686
    12000.000      40.101
    12200.000      40.517
    12400.000      40.933
    12600.000      41.349
    12800.000      41.764
    13000.000      42.180
       -1.000       0.000
Energy levels of V III from nist.gov April 2002.

